* Estimated atmospheric values for MAL2. Height estimate:   -20.9126 +/- 0.0356 m.
* METUTIL Version 3.0  2009-08-27
* Input files: oenaia.003       zmal25.003               ZTD-file sigmas scaled by   1.0
* Yr  Doy Hr Mn Sec  Total Zen  Wet Zen  Sig Zen    PW   Sig PW (mm)  Press (hPa)  Temp (K) ZHD (mm)   Grad NS   Sig NS  Grad EW   Sig EW (mm)
 2015   3  0  0  0.    2512.10   205.80   60.00   34.07    9.93        1010.20      300.80   2306.30     -6.70    43.50    11.00    65.40
 2015   3  1  0  0.    2505.80   199.50   59.20   33.03    9.80        1010.20      300.80   2306.30     -7.05    43.57    10.31    65.40
 2015   3  2  0  0.    2499.50   193.20   58.40   31.98    9.67        1010.20      300.80   2306.30     -7.39    43.64     9.62    65.39
 2015   3  3  0  0.    2503.30   197.00   57.90   32.61    9.59        1010.20      300.80   2306.30     -7.74    43.72     8.93    65.39
 2015   3  4  0  0.    2513.20   206.90   57.90   34.25    9.59        1010.20      300.80   2306.30     -8.08    43.79     8.23    65.38
 2015   3  5  0  0.    2526.30   220.00   57.50   36.42    9.52        1010.20      300.80   2306.30     -8.43    43.86     7.54    65.38
 2015   3  6  0  0.    2531.30   225.00   57.20   37.25    9.47        1010.20      300.80   2306.30     -8.77    43.93     6.85    65.38
 2015   3  7  0  0.    2523.60   217.30   57.20   35.97    9.47        1010.20      300.80   2306.30     -9.12    44.00     6.16    65.37
 2015   3  8  0  0.    2514.70   208.40   57.20   34.50    9.47        1010.20      300.80   2306.30     -9.47    44.07     5.47    65.37
 2015   3  9  0  0.    2513.70   207.40   57.00   34.33    9.44        1010.20      300.80   2306.30     -9.81    44.15     4.78    65.36
 2015   3 10  0  0.    2518.60   212.30   56.90   35.15    9.42        1010.20      300.80   2306.30    -10.16    44.22     4.08    65.36
 2015   3 11  0  0.    2523.10   216.80   56.70   35.89    9.39        1010.20      300.80   2306.30    -10.50    44.29     3.39    65.35
 2015   3 12  0  0.    2527.80   221.50   56.60   36.67    9.37        1010.20      300.80   2306.30    -10.85    44.36     2.70    65.35
 2015   3 13  0  0.    2537.80   231.50   56.70   38.32    9.39        1010.20      300.80   2306.30    -11.20    44.43     2.01    65.35
 2015   3 14  0  0.    2525.70   219.40   56.80   36.32    9.40        1010.20      300.80   2306.30    -11.54    44.50     1.32    65.34
 2015   3 15  0  0.    2514.30   208.00   57.00   34.43    9.44        1010.20      300.80   2306.30    -11.89    44.57     0.63    65.34
 2015   3 16  0  0.    2498.60   192.30   57.00   31.84    9.44        1010.20      300.80   2306.30    -12.23    44.64    -0.07    65.33
 2015   3 17  0  0.    2493.90   187.60   57.00   31.06    9.44        1010.20      300.80   2306.30    -12.58    44.71    -0.76    65.33
 2015   3 18  0  0.    2499.00   192.70   57.30   31.90    9.49        1010.20      300.80   2306.30    -12.92    44.78    -1.45    65.33
 2015   3 19  0  0.    2506.20   199.90   57.80   33.09    9.57        1010.20      300.80   2306.30    -13.27    44.85    -2.14    65.32
 2015   3 20  0  0.    2508.50   202.20   58.00   33.47    9.60        1010.20      300.80   2306.30    -13.62    44.92    -2.83    65.32
 2015   3 21  0  0.    2514.10   207.80   58.30   34.40    9.65        1010.20      300.80   2306.30    -13.96    44.99    -3.52    65.31
 2015   3 22  0  0.    2512.70   206.40   58.70   34.17    9.72        1010.20      300.80   2306.30    -14.31    45.06    -4.22    65.31
 2015   3 23  0  0.    2510.00   203.70   60.00   33.72    9.93        1010.20      300.80   2306.30    -14.65    45.13    -4.91    65.30
 2015   4  0  0  0.    2507.20   200.90   62.10   33.26   10.28        1010.20      300.80   2306.30    -15.00    45.20    -5.60    65.30
