* Estimated atmospheric values for MAL2. Height estimate:   -20.9191 +/- 0.0356 m.
* METUTIL Version 3.0  2009-08-27
* Input files: oenaia.002       zmal25.002               ZTD-file sigmas scaled by   1.0
* Yr  Doy Hr Mn Sec  Total Zen  Wet Zen  Sig Zen    PW   Sig PW (mm)  Press (hPa)  Temp (K) ZHD (mm)   Grad NS   Sig NS  Grad EW   Sig EW (mm)
 2015   2  0  0  0.    2516.50   210.20   60.10   34.80    9.95        1010.20      300.80   2306.30    -37.60    43.20     0.30    64.60
 2015   2  1  0  0.    2510.00   203.70   59.40   33.72    9.83        1010.20      300.80   2306.30    -37.18    43.21     0.34    64.60
 2015   2  2  0  0.    2496.90   190.60   58.60   31.55    9.70        1010.20      300.80   2306.30    -36.76    43.23     0.38    64.59
 2015   2  3  0  0.    2504.80   198.50   58.50   32.86    9.68        1010.20      300.80   2306.30    -36.34    43.24     0.41    64.59
 2015   2  4  0  0.    2517.90   211.60   58.00   35.03    9.60        1010.20      300.80   2306.30    -35.92    43.25     0.45    64.58
 2015   2  5  0  0.    2520.40   214.10   57.50   35.44    9.52        1010.20      300.80   2306.30    -35.50    43.26     0.49    64.58
 2015   2  6  0  0.    2527.20   220.90   57.20   36.57    9.47        1010.20      300.80   2306.30    -35.08    43.28     0.52    64.58
 2015   2  7  0  0.    2527.40   221.10   57.20   36.60    9.47        1010.20      300.80   2306.30    -34.65    43.29     0.56    64.57
 2015   2  8  0  0.    2520.80   214.50   57.20   35.51    9.47        1010.20      300.80   2306.30    -34.23    43.30     0.60    64.57
 2015   2  9  0  0.    2515.00   208.70   57.00   34.55    9.44        1010.20      300.80   2306.30    -33.81    43.31     0.64    64.56
 2015   2 10  0  0.    2515.80   209.50   56.90   34.68    9.42        1010.20      300.80   2306.30    -33.39    43.33     0.68    64.56
 2015   2 11  0  0.    2523.20   216.90   56.60   35.91    9.37        1010.20      300.80   2306.30    -32.97    43.34     0.71    64.55
 2015   2 12  0  0.    2520.20   213.90   56.50   35.41    9.35        1010.20      300.80   2306.30    -32.55    43.35     0.75    64.55
 2015   2 13  0  0.    2525.70   219.40   56.50   36.32    9.35        1010.20      300.80   2306.30    -32.13    43.36     0.79    64.55
 2015   2 14  0  0.    2520.20   213.90   56.50   35.41    9.35        1010.20      300.80   2306.30    -31.71    43.38     0.82    64.54
 2015   2 15  0  0.    2525.80   219.50   56.70   36.34    9.39        1010.20      300.80   2306.30    -31.29    43.39     0.86    64.54
 2015   2 16  0  0.    2531.20   224.90   56.80   37.23    9.40        1010.20      300.80   2306.30    -30.87    43.40     0.90    64.53
 2015   2 17  0  0.    2541.40   235.10   56.80   38.92    9.40        1010.20      300.80   2306.30    -30.45    43.41     0.94    64.53
 2015   2 18  0  0.    2540.00   233.70   57.10   38.69    9.45        1010.20      300.80   2306.30    -30.02    43.43     0.97    64.53
 2015   2 19  0  0.    2544.70   238.40   57.60   39.47    9.54        1010.20      300.80   2306.30    -29.60    43.44     1.01    64.52
 2015   2 20  0  0.    2544.00   237.70   57.80   39.35    9.57        1010.20      300.80   2306.30    -29.18    43.45     1.05    64.52
 2015   2 21  0  0.    2538.40   232.10   58.40   38.42    9.67        1010.20      300.80   2306.30    -28.76    43.46     1.09    64.51
 2015   2 22  0  0.    2532.50   226.20   58.50   37.45    9.68        1010.20      300.80   2306.30    -28.34    43.48     1.12    64.51
 2015   2 23  0  0.    2519.80   213.50   59.60   35.34    9.87        1010.20      300.80   2306.30    -27.92    43.49     1.16    64.50
 2015   3  0  0  0.    2511.50   205.20   61.20   33.97   10.13        1010.20      300.80   2306.30    -27.50    43.50     1.20    64.50
