* Estimated atmospheric values for MAL2. Height estimate:   -20.9202 +/- 0.0355 m.
* METUTIL Version 3.0  2009-08-27
* Input files: oenaia.001       zmal25.001               ZTD-file sigmas scaled by   1.0
* Yr  Doy Hr Mn Sec  Total Zen  Wet Zen  Sig Zen    PW   Sig PW (mm)  Press (hPa)  Temp (K) ZHD (mm)   Grad NS   Sig NS  Grad EW   Sig EW (mm)
 2015   1  0  0  0.    2522.80   216.50   59.90   35.84    9.92        1010.20      300.80   2306.30    -19.70    43.10     4.00    65.30
 2015   1  1  0  0.    2521.80   215.50   59.00   35.68    9.77        1010.20      300.80   2306.30    -19.40    43.21     3.84    65.31
 2015   1  2  0  0.    2524.40   218.10   58.20   36.11    9.63        1010.20      300.80   2306.30    -19.09    43.32     3.67    65.33
 2015   1  3  0  0.    2529.30   223.00   57.80   36.92    9.57        1010.20      300.80   2306.30    -18.79    43.43     3.51    65.34
 2015   1  4  0  0.    2543.90   237.60   57.60   39.33    9.54        1010.20      300.80   2306.30    -18.48    43.54     3.35    65.35
 2015   1  5  0  0.    2540.10   233.80   57.30   38.71    9.49        1010.20      300.80   2306.30    -18.18    43.65     3.19    65.36
 2015   1  6  0  0.    2532.60   226.30   57.20   37.46    9.47        1010.20      300.80   2306.30    -17.88    43.76     3.02    65.38
 2015   1  7  0  0.    2530.10   223.80   57.10   37.05    9.45        1010.20      300.80   2306.30    -17.57    43.87     2.86    65.39
 2015   1  8  0  0.    2525.70   219.40   57.10   36.32    9.45        1010.20      300.80   2306.30    -17.27    43.98     2.70    65.40
 2015   1  9  0  0.    2522.30   216.00   56.90   35.76    9.42        1010.20      300.80   2306.30    -16.96    44.09     2.54    65.41
 2015   1 10  0  0.    2516.80   210.50   56.80   34.85    9.40        1010.20      300.80   2306.30    -16.66    44.20     2.38    65.43
 2015   1 11  0  0.    2523.10   216.80   56.50   35.89    9.35        1010.20      300.80   2306.30    -16.35    44.31     2.21    65.44
 2015   1 12  0  0.    2523.70   217.40   56.40   35.99    9.34        1010.20      300.80   2306.30    -16.05    44.42     2.05    65.45
 2015   1 13  0  0.    2529.50   223.20   56.40   36.95    9.34        1010.20      300.80   2306.30    -15.75    44.53     1.89    65.46
 2015   1 14  0  0.    2536.80   230.50   56.50   38.16    9.35        1010.20      300.80   2306.30    -15.44    44.64     1.73    65.48
 2015   1 15  0  0.    2536.50   230.20   56.50   38.11    9.35        1010.20      300.80   2306.30    -15.14    44.74     1.56    65.49
 2015   1 16  0  0.    2534.50   228.20   56.70   37.78    9.39        1010.20      300.80   2306.30    -14.83    44.85     1.40    65.50
 2015   1 17  0  0.    2540.50   234.20   56.80   38.77    9.40        1010.20      300.80   2306.30    -14.53    44.96     1.24    65.51
 2015   1 18  0  0.    2545.00   238.70   57.10   39.52    9.45        1010.20      300.80   2306.30    -14.22    45.06     1.08    65.53
 2015   1 19  0  0.    2540.70   234.40   57.80   38.80    9.57        1010.20      300.80   2306.30    -13.92    45.17     0.91    65.54
 2015   1 20  0  0.    2539.20   232.90   58.10   38.56    9.62        1010.20      300.80   2306.30    -13.62    45.28     0.75    65.55
 2015   1 21  0  0.    2534.90   228.60   58.20   37.84    9.63        1010.20      300.80   2306.30    -13.31    45.38     0.59    65.56
 2015   1 22  0  0.    2530.00   223.70   58.30   37.03    9.65        1010.20      300.80   2306.30    -13.01    45.49     0.43    65.58
 2015   1 23  0  0.    2529.40   223.10   59.60   36.93    9.87        1010.20      300.80   2306.30    -12.70    45.59     0.26    65.59
 2015   2  0  0  0.    2529.90   223.60   61.70   37.02   10.21        1010.20      300.80   2306.30    -12.40    45.70     0.10    65.60
